Intensity B5.2,,C:\Users\Brend\Desktop\LED Spectras v2\Blinds\-Interference\Spectrometer Data.sp,,,B5.2,
1.573,,2018-07-11 15:22:49,,Integration Time,100 ms,
1.566,,Analyze Light,,Number of Scans to Average,25,
1.556,,,,Smoothing,0,
1.572
1.583
1.595
1.592
1.590
1.580
1.583
1.601
1.604
1.607
1.621
1.622
1.625
1.613
1.610
1.621
1.634
1.645
1.661
1.663
1.659
1.665
1.665
1.672
1.681
1.687
1.707
1.713
1.715
1.708
1.705
1.689
1.698
1.696
1.698
1.704
1.722
1.732
1.736
1.729
1.748
1.744
1.748
1.748
1.752
1.750
1.759
1.777
1.776
1.774
1.789
1.797
1.782
1.786
1.798
1.806
1.808
1.819
1.823
1.828
1.837
1.837
1.835
1.838
1.848
1.853
1.861
1.864
1.868
1.869
1.884
1.893
1.907
1.917
1.906
1.905
1.899
1.898
1.908
1.925
1.924
1.923
1.947
1.959
1.976
1.965
1.952
1.940
1.941
1.949
1.956
1.960
1.964
1.979
1.990
1.990
1.996
1.991
1.986
1.982
1.989
1.987
1.992
2.002
2.031
2.042
2.047
2.052
2.048
2.040
2.046
2.055
2.046
2.031
2.046
2.063
2.075
2.073
2.082
2.070
2.090
2.101
2.101
2.108
2.125
2.119
2.131
2.130
2.142
2.142
2.135
2.140
2.155
2.148
2.158
2.153
2.162
2.157
2.163
2.165
2.172
2.171
2.180
2.176
2.180
2.187
2.198
2.188
2.191
2.187
2.190
2.198
2.207
2.202
2.218
2.212
2.206
2.209
2.204
2.210
2.217
2.213
2.208
2.200
2.206
2.198
2.204
2.208
2.227
2.226
2.227
2.224
2.226
2.221
2.231
2.227
2.231
2.234
2.253
2.256
2.270
2.277
2.310
2.323
2.313
2.313
2.314
2.323
2.353
2.358
2.368
2.384
2.415
2.439
2.475
2.501
2.526
2.551
2.583
2.599
2.638
2.677
2.728
2.772
2.832
2.875
2.930
2.973
3.057
3.154
3.227
3.288
3.359
3.440
3.538
3.645
3.756
3.864
4.003
4.117
4.257
4.377
4.521
4.665
4.841
4.994
5.168
5.346
5.549
5.756
5.968
6.174
6.416
6.640
6.888
7.133
7.416
7.657
7.942
8.226
8.541
8.853
9.193
9.544
9.879
10.218
10.606
11.003
11.397
11.799
12.211
12.673
13.139
13.594
14.131
14.672
15.257
15.837
16.419
17.030
17.717
18.364
19.093
19.828
20.626
21.436
22.301
23.161
24.131
25.138
26.135
27.203
28.354
29.492
30.700
31.959
33.302
34.690
36.085
37.528
38.998
40.475
41.996
43.568
45.199
46.890
48.601
50.303
52.000
53.710
55.447
57.162
58.799
60.390
61.978
63.457
64.900
66.252
67.511
68.671
69.689
70.552
71.323
72.005
72.577
72.943
73.181
73.323
73.297
73.104
72.829
72.430
71.822
71.139
70.384
69.493
68.507
67.458
66.285
64.989
63.564
62.120
60.673
59.163
57.653
56.139
54.641
53.118
51.639
50.188
48.758
47.369
46.014
44.703
43.430
42.219
41.122
40.075
39.065
38.123
37.244
36.461
35.672
34.952
34.249
33.616
33.000
32.379
31.836
31.296
30.808
30.331
29.840
29.331
28.849
28.367
27.863
27.413
26.977
26.506
26.051
25.608
25.150
24.671
24.214
23.753
23.282
22.783
22.310
21.833
21.332
20.840
20.323
19.797
19.305
18.788
18.275
17.780
17.304
16.805
16.345
15.852
15.351
14.910
14.499
14.035
13.601
13.210
12.842
12.461
12.097
11.743
11.429
11.111
10.796
10.477
10.189
9.895
9.640
9.372
9.102
8.848
8.631
8.424
8.266
8.053
7.869
7.653
7.468
7.283
7.117
6.956
6.834
6.673
6.517
6.356
6.205
6.045
5.900
5.730
5.607
5.470
5.369
5.245
5.146
5.018
4.901
4.759
4.630
4.476
4.362
4.238
4.143
4.019
3.918
3.821
3.715
3.605
3.525
3.430
3.350
3.263
3.177
3.074
3.008
2.902
2.826
2.778
2.733
2.651
2.581
2.521
2.473
2.425
2.395
2.352
2.313
2.258
2.223
2.184
2.127
2.093
2.077
2.051
2.045
2.008
1.966
1.944
1.943
1.918
1.881
1.859
1.840
1.823
1.802
1.796
1.803
1.777
1.744
1.719
1.712
1.695
1.686
1.665
1.655
1.656
1.644
1.638
1.628
1.613
1.602
1.594
1.588
1.561
1.543
1.536
1.544
1.567
1.561
1.554
1.534
1.522
1.508
1.502
1.508
1.489
1.475
1.472
1.462
1.441
1.434
1.426
1.437
1.444
1.442
1.421
1.417
1.415
1.423
1.414
1.410
1.403
1.396
1.391
1.389
1.382
1.384
1.378
1.371
1.362
1.361
1.376
1.362
1.354
1.360
1.353
1.358
1.352
1.339
1.326
1.330
1.339
1.323
1.312
1.334
1.334
1.323
1.315
1.319
1.318
1.314
1.315
1.320
1.331
1.333
1.326
1.316
1.308
1.302
1.294
1.283
1.273
1.282
1.286
1.295
1.296
1.290
1.293
1.309
1.299
1.286
1.271
1.281
1.278
1.289
1.290
1.277
1.263
1.270
1.277
1.288
1.290
1.289
1.275
1.278
1.285
1.270
1.267
1.257
1.252
1.259
1.271
1.269
1.262
1.257
1.254
1.259
1.263
1.260
1.249
1.257
1.247
1.254
1.261
1.249
1.263
1.268
1.268
1.264
1.260
1.258
1.252
1.255
1.257
1.253
1.247
1.241
1.240
1.247
1.249
1.241
1.240
1.250
1.259
1.260
1.251
1.254
1.254
1.261
1.253
1.239
1.230
1.235
1.252
1.260
1.259
1.251
1.250
1.260
1.263
1.251
1.229
1.235
1.244
1.248
1.243
1.241
1.238
1.245
1.248
1.241
1.240
1.249
1.258
1.264
1.258
1.251
1.241
1.232
1.235
1.243
1.245
1.255
1.271
1.279
1.263
1.247
1.240
1.251
1.254
1.263
1.258
1.248
1.253
1.262
1.252
1.253
1.244
1.237
1.223
1.228
1.232
1.242
1.243
1.234
1.232
1.239
1.234
1.234
1.233
1.241
1.250
1.243
1.233
1.237
1.243
1.235
1.228
1.229
1.225
1.240
1.247
1.242
1.240
1.254
1.258
1.251
1.251
1.259
1.250
1.233
1.227
1.239
1.247
1.235
1.230
1.241
1.247
1.239
1.227
1.229
1.224
1.225
1.235
1.252
1.242
1.232
1.240
1.234
1.233
1.227
1.217
1.220
1.219
1.224
1.235
1.229
1.233
1.237
1.227
1.215
1.217
1.229
1.228
1.219
1.213
1.207
1.207
1.221
1.230
1.223
1.208
1.201
1.210
1.218
1.212
1.222
1.229
1.232
1.232
1.228
1.201
1.194
1.205
1.203
1.207
1.221
1.234
1.230
1.227
1.218
1.215
1.217
1.218
1.218
1.210
1.208
1.204
1.208
1.208
1.212
1.215
1.214
1.207
1.203
1.205
1.210
1.208
1.210
1.209
1.220
1.232
1.245
1.235
1.233
1.230
1.217
1.218
1.220
1.228
1.228
1.211
1.205
1.203
1.201
1.208
1.213
1.224
1.231
1.228
1.227
1.211
1.208
1.208
1.194
1.191
1.207
1.223
1.220
1.213
1.214
1.209
1.218
1.224
1.222
1.221
1.221
1.221
1.223
1.225
1.231
1.223
1.228
1.225
1.217
1.215
1.214
1.207
1.213
1.219
1.220
1.213
1.195
1.189
1.197
1.190
1.181
1.188
1.193
1.198
1.209
1.208
1.191
1.187
1.200
1.207
1.214
1.208
1.210
1.202
1.204
1.208
1.217
1.223
1.224
1.220
1.210
1.212
1.209
1.203
1.208
1.210
1.211
1.207
1.201
1.197
1.199
1.199
1.203
1.203
1.194
1.187
1.200
1.210
1.215
1.213
1.207
1.202
1.207
1.212
1.214
1.213
1.215
1.221
1.223
1.220
1.211
1.203
1.210
1.221
1.214
1.205
1.215
1.215
1.202
1.191
1.191
1.193
1.201
1.201
1.207
1.229
1.231
1.207
1.208
1.221
1.220
1.211
1.214
1.221
1.229
1.217
1.212
1.217
1.230
1.238
1.245
1.232
1.224
1.215
1.201
1.202
1.210
1.200
1.203
1.209
1.208
1.200
1.199
1.195
1.203
1.209
1.208
1.203
1.200
1.202
1.197
1.189
1.193
1.201
1.202
1.201
1.187
1.187
1.182
1.177
1.172
1.169
1.189
1.205
1.201
1.192
1.199
1.202
1.197
1.189
1.188
1.188
1.193
1.202
1.203
1.191
1.198
1.199
1.198
1.203
1.210
1.212
1.208
1.208
1.205
1.197
1.198
1.197
1.189
1.195
1.205
1.215
1.213
1.200
1.190
1.184
1.190
1.192
1.200
1.205
1.199
1.191
1.175
1.182
1.175
1.171
1.180
1.185
1.192
1.193
1.192
1.188
1.200
1.208
1.203
1.190
1.185
1.191
1.202
1.210
1.209
1.207
1.204
1.191
1.188
1.192
1.204
1.213
1.210
1.200
1.195
1.190
1.184
1.195
1.190
1.191
1.202
1.199
1.199
1.201
1.200
1.210
1.205
1.214
1.224
1.208
1.184
1.180
1.188
1.194
1.205
1.209
1.213
1.210
1.209
1.199
1.199
1.201
1.193
1.189
1.194
1.200
1.203
1.187
1.183
1.181
1.178
1.191
1.200
1.201
1.209
1.210
1.201
1.191
1.189
1.195
1.200
1.191
1.188
1.190
1.179
1.178
1.187
1.189
1.185
1.189
1.197
1.203
1.197
1.204
1.213
1.213
1.203
1.181
1.183
1.184
1.184
1.189
1.191
1.189
1.193
1.187
1.189
1.183
1.194
1.201
1.199
1.201
1.212
1.217
1.225
1.252
1.250
1.205
1.207
1.204
1.210
1.231
1.281
1.267
1.205
1.198
1.203
1.200
1.195
1.203
1.207
1.189
1.182
1.187
1.189
1.183
1.182
1.180
1.181
1.190
1.189
1.193
1.210
1.202
1.188
1.183
1.191
1.191
1.191
1.194
1.204
1.198
1.187
1.175
1.184
1.204
1.218
1.204
1.192
1.190
1.199
1.207
1.204
1.193
1.180
1.172
1.164
1.169
1.183
1.201
1.205
1.195
1.195
1.184
1.183
1.190
1.189
1.180
1.164
1.160
1.172
1.174
1.179
1.187
1.190
1.189
1.180
1.183
1.183
1.181
1.185
1.189
1.192
1.203
1.204
1.190
1.173
1.172
1.188
1.199
1.210
1.209
1.200
1.191
1.187
1.177
1.183
1.194
1.191
1.178
1.166
1.184
1.201
1.190
1.183
1.187
1.185
1.179
1.184
1.189
1.195
1.189
1.183
1.185
1.179
1.182
1.181
1.184
1.190
1.191
1.179
1.177
1.181
1.179
1.171
1.172
1.190
1.190
1.175
1.180
1.181
1.171
1.182
1.193
1.188
1.175
1.181
1.182
1.179
1.181
1.174
1.180
1.175
1.152
1.152
1.148
1.133
1.126
1.117
1.116
1.122
1.123
1.120
1.103
1.094
1.091
1.097
1.087
1.083
1.091
1.086
1.096
1.104
1.104
1.111
1.108
1.108
1.113
1.122
1.127
1.136
1.141
1.130
1.126
1.126
1.111
1.104
1.104
1.110
1.111
1.108
1.103
1.109
1.118
1.116
1.101
1.096
1.100
1.103
1.113
1.118
1.121
1.123
1.114
1.108
1.101
1.112
1.120
1.123
1.123
1.128
1.117
1.117
1.113
1.098
1.100
1.107
1.103
1.108
1.112
1.121
1.123
1.109
1.102
1.101
1.102
1.106
1.106
1.107
1.100
1.097
1.097
1.108
1.103
1.111
1.122
1.120
1.131
1.137
1.119
1.104
1.097
1.100
1.103
1.100
1.094
1.092
1.106
1.108
1.109
1.103
1.097
1.089
1.092
1.101
1.097
1.104
1.113
1.108
1.103
1.111
1.108
1.098
1.096
1.107
1.112
1.111
1.100
1.096
1.089
1.089
1.089
1.089
1.090
1.086
1.086
1.089
1.091
1.098
1.107
1.106
1.103
1.103
1.098
1.106
1.104
1.101
1.108
1.108
1.108
1.109
1.103
1.106
1.108
1.107
1.103
1.104
1.098
1.091
1.087
1.086
1.083
1.092
1.098
1.111
1.124
1.116
1.109
1.106
1.102
1.099
1.100
1.097
1.102
1.109
1.118
1.126
1.127
1.130
1.127
1.107
1.098
1.102
1.110
1.121
1.117
1.106
1.098
1.101
1.102
1.094
1.102
1.106
1.102
1.110
1.112
1.107
1.098
1.100
1.111
1.109
1.102
1.099
1.098
1.098
1.101
1.109
1.111
1.110
1.111
1.108
1.100
1.100
1.108
1.116
1.108
1.103
1.107
1.111
1.106
1.098
1.088
1.091
1.094
1.101
1.101
1.099
1.099
1.097
1.090
1.103
1.107
1.102
1.097
1.092
1.094
1.101
1.108
1.113
1.116
1.113
1.112
1.108
1.103
1.108
1.100
1.106
1.117
1.114
1.118
1.126
1.123
1.124
1.112
1.108
1.118
1.127
1.129
1.124
1.119
1.112
1.101
1.111
1.113
1.113
1.124
1.127
1.121
1.112
1.112
1.119
1.114
1.109
1.099
1.091
1.096
1.109
1.107
1.104
1.102
1.102
1.100
1.100
1.106
1.101
1.109
1.108
1.109
1.116
1.108
1.102
1.098
1.091
1.088
1.103
1.104
1.100
1.104
1.114
1.108
1.103
1.093
1.083
1.088
1.089
1.089
1.103
1.108
1.101
1.100
1.099
1.093
1.092
1.097
1.090
1.090
1.090
1.104
1.114
1.111
1.116
1.107
1.109
1.114
1.128
1.120
1.102
1.090
1.089
1.094
1.110
1.122
1.131
1.123
1.106
1.099
1.087
1.081
1.092
1.104
1.101
1.091
1.092
1.096
1.096
1.098
1.100
1.109
1.111
1.114
1.117
1.119
1.124
1.122
1.111
1.111
1.123
1.116
1.100
1.096
1.099
1.101
1.101
1.110
1.106
1.104
1.106
1.093
1.088
1.093
1.104
1.108
1.112
1.112
1.116
1.106
1.092
1.088
1.083
1.090
1.089
1.084
1.092
1.098
1.108
1.114
1.117
1.108
1.100
1.091
1.087
1.092
1.084
1.084
1.098
1.110
1.120
1.107
1.102
1.101
1.093
1.086
1.096
1.096
1.096
1.092
1.083
1.082
1.089
1.096
1.104
1.109
1.102
1.094
1.104
1.109
1.107
1.106
1.106
1.098
1.106
1.108
1.094
1.082
1.082
1.090
1.100
1.110
1.109
1.109
1.122
1.143
1.169
1.156
1.103
1.091
1.112
1.113
1.114
1.112
1.101
1.097
1.110
1.106
1.104
1.114
1.118
1.112
1.107
1.102
1.107
1.110
1.109
1.122
1.114
1.092
1.087
1.081
1.092
1.098
1.096
1.097
1.100
1.107
1.107
1.109
1.116
1.119
1.103
1.087
1.088
1.097
1.121
1.133
1.123
1.110
1.104
1.100
1.091
1.098
1.110
1.110
1.120
1.124
1.117
1.100
1.090
1.088
1.096
1.104
1.101
1.088
1.092
1.097
1.097
1.098
1.113
1.110
1.094
1.102
1.103
1.103
1.110
1.104
1.107
1.101
1.101
1.096
1.094
1.107
1.110
1.109
1.116
1.122
1.128
1.124
1.129
1.124
1.114
1.117
1.106
1.090
1.098
1.106
1.098
1.092
1.096
1.093
1.094
1.094
1.092
1.099
1.108
1.111
1.113
1.118
1.112
1.099
1.112
1.107
1.097
1.111
1.106
1.100
1.092
1.089
1.096
1.113
1.118
1.117
1.134
1.127
1.112
1.094
1.100
1.103
1.096
1.098
1.103
1.104
1.107
1.107
1.107
1.093
1.082
1.086
1.083
1.097
1.123
1.130
1.131
1.137
1.127
1.113
1.108
1.104
1.100
1.082
1.084
1.100
1.102
1.101
1.112
1.117
1.100
1.088
1.092
1.088
1.088
1.099
1.107
1.113
1.118
1.117
1.112
1.104
1.098
1.116
1.127
1.120
1.132
1.127
1.102
1.093
1.098
1.104
1.110
1.106
1.101
1.094
1.104
1.118
1.116
1.103
1.094
1.088
1.088
1.082
1.078
1.077
1.082
1.099
1.099
1.089
1.084
1.082
1.096
1.111
1.107
1.108
1.108
1.090
1.096
1.102
1.098
1.103
1.111
1.111
1.121
1.130
1.123
1.111
1.109
1.114
1.112
1.109
1.101
1.086
1.090
1.096
1.101
1.103
1.103
1.096
1.101
1.110
1.096
1.080
1.084
1.094
1.102
1.122
1.133
1.122
1.112
1.104
1.097
1.092
1.099
1.104
1.116
1.119
1.120
1.118
1.110
1.103
1.102
1.104
1.108
1.109
1.109
1.096
1.100
1.098
1.093
1.107
1.116
1.113
1.121
1.112
1.096
1.101
1.110
1.120
1.130
1.131
1.122
1.109
1.104
1.107
1.130
1.137
1.137
1.127
1.111
1.094
1.110
1.122
1.124
1.122
1.111
1.103
1.096
1.083
1.082
1.086
1.103
1.103
1.094
1.097
1.098
1.101
1.102
1.107
1.108
1.112
1.127
1.133
1.132
1.116
1.110
1.093
1.086
1.094
1.107
1.106
1.104
1.101
1.094
1.101
1.128
1.137
1.118
1.119
1.124
1.121
1.128
1.127
1.114
1.108
1.104
1.102
1.108
1.116
1.134
1.132
1.103
1.093
1.089
1.079
1.090
1.112
1.118
1.110
1.109
1.104
1.111
1.130
1.107
1.086
1.090
1.093
1.092
1.089
1.099
1.113
1.110
1.103
1.113
1.107
1.101
1.098
1.092
1.107
1.113
1.106
1.107
1.111
1.120
1.119
1.121
1.131
1.148
1.157
1.147
1.132
1.129
1.121
1.126
1.126
1.114
1.109
1.103
1.113
1.119
1.117
1.112
1.109
1.110
1.112
1.106
1.090
1.091
1.092
1.097
1.104
1.100
1.088
1.083
1.093
1.112
1.110
1.104
1.100
1.100
1.101
1.114
1.113
1.103
1.097
1.106
1.124
1.117
1.111
1.109
1.112
1.119
1.114
1.111
1.108
1.112
1.103
1.104
1.106
1.121
1.130
1.119
1.099
1.094
1.113
1.119
1.117
1.108
1.100
1.092
1.093
1.107
1.116
1.112
1.113
1.120
1.116
1.123
1.121
1.114
1.119
1.137
1.140
1.126
1.110
1.114
1.122
1.129
1.123
1.113
1.104
1.091
1.089
1.106
1.103
1.090
1.090
1.090
1.099
1.116
1.114
1.116
1.119
1.117
1.113
1.114
1.111
1.113
1.117
1.102
1.092
1.101
1.099
1.100
1.102
1.106
1.114
1.128
1.121
1.113
1.106
1.103
1.089
1.091
1.097
1.094
1.097
1.087
1.087
1.101
1.110
1.106
1.094
1.097
1.100
1.114
1.110
1.097
1.097
1.099
1.096
1.107
1.106
1.108
1.100
1.094
1.090
1.097
1.106
1.108
1.103
1.109
1.112
1.106
1.113
1.132
1.139
1.122
1.116
1.124
1.117
1.099
1.099
1.098
1.093
1.107
1.106
1.090
1.096
1.103
