Intensity β1.3,,C:\Users\Brend\Desktop\LED Spectras v2\Blinds\-Interference\Spectrometer Data (Alt).sp,,,β1.3,
1.410,,2018-07-11 10:17:51,,Integration Time,100 ms,
1.414,,Analyze Light,,Number of Scans to Average,25,
1.419,,,,Smoothing,1,
1.429
1.438
1.448
1.450
1.448
1.442
1.444
1.448
1.450
1.455
1.465
1.471
1.468
1.464
1.466
1.473
1.485
1.498
1.508
1.513
1.514
1.518
1.524
1.529
1.535
1.544
1.554
1.564
1.571
1.573
1.570
1.568
1.564
1.567
1.571
1.580
1.585
1.588
1.590
1.596
1.601
1.604
1.604
1.611
1.622
1.633
1.640
1.639
1.636
1.633
1.636
1.642
1.647
1.649
1.652
1.653
1.654
1.658
1.665
1.678
1.685
1.692
1.695
1.703
1.708
1.715
1.719
1.723
1.722
1.724
1.732
1.746
1.756
1.763
1.767
1.768
1.766
1.765
1.767
1.771
1.775
1.781
1.795
1.814
1.821
1.821
1.816
1.812
1.805
1.799
1.798
1.801
1.808
1.819
1.827
1.833
1.836
1.843
1.844
1.846
1.844
1.847
1.852
1.863
1.871
1.877
1.880
1.886
1.889
1.889
1.885
1.884
1.883
1.884
1.887
1.893
1.899
1.907
1.910
1.918
1.931
1.947
1.954
1.960
1.961
1.968
1.974
1.985
1.985
1.981
1.977
1.980
1.984
1.986
1.985
1.988
1.993
2.003
2.012
2.020
2.022
2.022
2.020
2.018
2.016
2.019
2.023
2.027
2.028
2.029
2.032
2.039
2.046
2.053
2.052
2.054
2.055
2.062
2.061
2.062
2.060
2.059
2.048
2.047
2.044
2.052
2.056
2.069
2.073
2.075
2.072
2.070
2.065
2.068
2.076
2.085
2.086
2.083
2.082
2.088
2.097
2.116
2.131
2.142
2.143
2.143
2.147
2.159
2.169
2.180
2.192
2.212
2.229
2.245
2.266
2.304
2.337
2.364
2.384
2.414
2.448
2.488
2.526
2.570
2.617
2.673
2.726
2.790
2.857
2.929
2.998
3.075
3.155
3.244
3.336
3.432
3.529
3.637
3.751
3.876
3.994
4.120
4.246
4.390
4.545
4.716
4.886
5.066
5.246
5.441
5.637
5.850
6.068
6.296
6.524
6.770
7.024
7.291
7.566
7.859
8.161
8.473
8.794
9.136
9.481
9.839
10.197
10.579
10.969
11.378
11.789
12.224
12.671
13.147
13.650
14.181
14.723
15.280
15.851
16.457
17.090
17.761
18.467
19.207
19.987
20.801
21.641
22.510
23.426
24.396
25.394
26.429
27.501
28.627
29.789
31.013
32.305
33.671
35.087
36.529
37.989
39.478
41.003
42.569
44.168
45.826
47.522
49.247
50.959
52.674
54.385
56.094
57.767
59.404
60.993
62.517
63.966
65.336
66.628
67.817
68.892
69.855
70.675
71.390
71.988
72.496
72.859
73.079
73.139
73.066
72.852
72.508
72.035
71.440
70.723
69.900
68.953
67.902
66.739
65.477
64.129
62.706
61.254
59.784
58.301
56.807
55.301
53.783
52.268
50.768
49.304
47.868
46.475
45.137
43.851
42.630
41.467
40.386
39.367
38.413
37.520
36.682
35.897
35.150
34.440
33.769
33.118
32.504
31.920
31.380
30.862
30.351
29.829
29.320
28.813
28.315
27.819
27.349
26.913
26.489
26.064
25.636
25.181
24.718
24.247
23.780
23.301
22.821
22.341
21.849
21.347
20.840
20.328
19.805
19.286
18.773
18.263
17.760
17.263
16.786
16.310
15.834
15.356
14.893
14.439
13.989
13.549
13.146
12.757
12.382
12.006
11.651
11.299
10.968
10.642
10.340
10.049
9.779
9.500
9.237
8.972
8.735
8.506
8.311
8.118
7.923
7.717
7.518
7.325
7.139
6.961
6.806
6.656
6.516
6.366
6.216
6.054
5.897
5.733
5.584
5.440
5.318
5.197
5.089
4.972
4.858
4.725
4.598
4.463
4.344
4.220
4.114
4.005
3.896
3.787
3.691
3.592
3.499
3.401
3.316
3.219
3.124
3.027
2.944
2.858
2.782
2.711
2.654
2.589
2.515
2.441
2.382
2.331
2.293
2.253
2.216
2.169
2.127
2.085
2.045
2.004
1.970
1.943
1.927
1.905
1.881
1.850
1.828
1.811
1.792
1.767
1.744
1.723
1.704
1.690
1.684
1.674
1.651
1.621
1.594
1.576
1.562
1.547
1.533
1.522
1.515
1.511
1.501
1.490
1.477
1.464
1.453
1.439
1.422
1.406
1.398
1.399
1.405
1.403
1.396
1.383
1.375
1.371
1.371
1.367
1.355
1.343
1.336
1.330
1.320
1.310
1.307
1.311
1.314
1.310
1.303
1.294
1.292
1.286
1.282
1.277
1.272
1.265
1.256
1.254
1.258
1.264
1.266
1.258
1.249
1.242
1.238
1.236
1.235
1.230
1.226
1.220
1.218
1.218
1.220
1.222
1.219
1.212
1.211
1.212
1.210
1.199
1.191
1.188
1.187
1.185
1.183
1.180
1.183
1.189
1.194
1.195
1.194
1.193
1.187
1.178
1.171
1.172
1.177
1.180
1.177
1.170
1.167
1.168
1.168
1.164
1.158
1.154
1.153
1.152
1.149
1.141
1.134
1.136
1.144
1.153
1.158
1.158
1.158
1.160
1.157
1.149
1.137
1.132
1.138
1.148
1.155
1.155
1.150
1.145
1.143
1.144
1.146
1.143
1.139
1.133
1.132
1.132
1.136
1.143
1.150
1.153
1.152
1.146
1.138
1.130
1.129
1.135
1.141
1.139
1.131
1.125
1.127
1.133
1.135
1.127
1.119
1.115
1.119
1.123
1.127
1.129
1.130
1.131
1.131
1.129
1.126
1.125
1.126
1.129
1.133
1.136
1.137
1.135
1.129
1.118
1.111
1.111
1.116
1.117
1.113
1.107
1.105
1.102
1.102
1.103
1.113
1.126
1.137
1.138
1.132
1.121
1.110
1.104
1.106
1.108
1.113
1.121
1.132
1.135
1.128
1.121
1.122
1.127
1.131
1.130
1.127
1.127
1.128
1.130
1.129
1.129
1.129
1.127
1.122
1.118
1.119
1.120
1.118
1.114
1.110
1.109
1.109
1.107
1.106
1.105
1.108
1.104
1.099
1.096
1.100
1.104
1.109
1.111
1.113
1.117
1.123
1.131
1.134
1.136
1.131
1.126
1.122
1.117
1.111
1.110
1.117
1.126
1.125
1.115
1.107
1.107
1.107
1.104
1.101
1.101
1.105
1.107
1.112
1.113
1.112
1.108
1.104
1.101
1.097
1.092
1.092
1.094
1.101
1.106
1.110
1.111
1.111
1.107
1.101
1.098
1.105
1.111
1.112
1.105
1.099
1.095
1.098
1.102
1.104
1.100
1.094
1.091
1.088
1.087
1.089
1.096
1.103
1.105
1.102
1.093
1.084
1.077
1.074
1.076
1.080
1.089
1.097
1.103
1.101
1.094
1.087
1.083
1.084
1.084
1.086
1.087
1.091
1.093
1.095
1.095
1.093
1.093
1.094
1.094
1.093
1.091
1.091
1.091
1.094
1.104
1.119
1.127
1.125
1.113
1.101
1.095
1.091
1.092
1.094
1.093
1.090
1.086
1.085
1.083
1.082
1.086
1.095
1.101
1.104
1.102
1.100
1.096
1.088
1.080
1.077
1.078
1.080
1.081
1.083
1.083
1.082
1.084
1.089
1.092
1.089
1.089
1.093
1.100
1.103
1.099
1.097
1.096
1.094
1.086
1.080
1.081
1.087
1.089
1.088
1.085
1.080
1.076
1.076
1.078
1.077
1.077
1.078
1.078
1.076
1.075
1.076
1.074
1.072
1.076
1.083
1.088
1.090
1.087
1.086
1.086
1.089
1.091
1.094
1.096
1.095
1.091
1.087
1.086
1.087
1.091
1.094
1.094
1.090
1.085
1.082
1.083
1.083
1.082
1.078
1.071
1.065
1.066
1.071
1.076
1.078
1.077
1.079
1.084
1.089
1.091
1.092
1.093
1.092
1.089
1.083
1.078
1.075
1.078
1.082
1.083
1.085
1.087
1.089
1.087
1.084
1.085
1.088
1.092
1.096
1.103
1.109
1.106
1.095
1.090
1.094
1.100
1.098
1.093
1.092
1.088
1.084
1.083
1.087
1.094
1.100
1.101
1.100
1.096
1.088
1.080
1.077
1.075
1.074
1.074
1.077
1.076
1.070
1.065
1.066
1.069
1.074
1.077
1.076
1.077
1.079
1.081
1.081
1.081
1.080
1.077
1.072
1.069
1.064
1.062
1.056
1.052
1.055
1.063
1.072
1.073
1.070
1.064
1.061
1.058
1.057
1.057
1.062
1.068
1.073
1.073
1.071
1.070
1.071
1.073
1.074
1.077
1.077
1.077
1.077
1.076
1.077
1.074
1.069
1.063
1.061
1.065
1.072
1.074
1.070
1.063
1.062
1.064
1.070
1.073
1.073
1.071
1.067
1.067
1.067
1.067
1.066
1.064
1.065
1.067
1.071
1.073
1.075
1.079
1.081
1.077
1.067
1.059
1.059
1.064
1.073
1.079
1.079
1.072
1.066
1.064
1.065
1.068
1.072
1.073
1.070
1.066
1.062
1.058
1.055
1.056
1.064
1.070
1.075
1.075
1.076
1.076
1.077
1.080
1.086
1.091
1.089
1.081
1.074
1.072
1.075
1.080
1.085
1.090
1.094
1.095
1.092
1.087
1.083
1.079
1.077
1.076
1.075
1.070
1.066
1.063
1.061
1.060
1.058
1.059
1.058
1.062
1.067
1.069
1.068
1.069
1.073
1.071
1.064
1.059
1.056
1.055
1.054
1.059
1.062
1.065
1.066
1.068
1.070
1.072
1.072
1.072
1.069
1.063
1.058
1.056
1.057
1.057
1.059
1.061
1.062
1.060
1.060
1.059
1.060
1.061
1.064
1.066
1.068
1.070
1.081
1.099
1.114
1.109
1.098
1.090
1.093
1.100
1.117
1.128
1.113
1.086
1.065
1.065
1.067
1.073
1.079
1.079
1.076
1.074
1.080
1.084
1.081
1.071
1.065
1.064
1.065
1.068
1.074
1.080
1.079
1.073
1.070
1.071
1.070
1.072
1.073
1.073
1.068
1.060
1.058
1.062
1.070
1.076
1.074
1.072
1.072
1.074
1.074
1.070
1.066
1.059
1.051
1.046
1.048
1.059
1.070
1.075
1.074
1.070
1.064
1.061
1.062
1.065
1.063
1.057
1.055
1.055
1.056
1.058
1.064
1.068
1.069
1.067
1.067
1.064
1.060
1.057
1.062
1.069
1.076
1.074
1.067
1.060
1.062
1.068
1.077
1.084
1.087
1.084
1.075
1.069
1.066
1.068
1.070
1.073
1.074
1.072
1.070
1.067
1.062
1.059
1.056
1.055
1.052
1.053
1.057
1.062
1.066
1.071
1.077
1.077
1.070
1.060
1.057
1.060
1.063
1.063
1.062
1.060
1.059
1.059
1.066
1.073
1.073
1.066
1.060
1.057
1.058
1.065
1.074
1.073
1.067
1.061
1.059
1.059
1.055
1.056
1.051
1.044
1.032
1.020
1.014
1.009
1.004
1.000
1.002
1.005
1.006
1.001
0.994
0.985
0.979
0.973
0.972
0.968
0.966
0.966
0.971
0.978
0.984
0.990
0.993
0.992
0.994
1.000
1.008
1.015
1.016
1.011
1.002
0.995
0.992
0.992
0.991
0.989
0.983
0.981
0.981
0.985
0.988
0.987
0.982
0.980
0.981
0.985
0.986
0.988
0.987
0.983
0.980
0.982
0.990
0.998
1.001
1.003
1.000
0.994
0.990
0.990
0.992
0.990
0.988
0.987
0.987
0.987
0.989
0.990
0.984
0.976
0.969
0.970
0.974
0.977
0.980
0.981
0.978
0.972
0.968
0.968
0.973
0.981
0.986
0.992
0.996
0.998
0.995
0.988
0.984
0.979
0.975
0.972
0.975
0.979
0.982
0.985
0.985
0.982
0.979
0.981
0.986
0.988
0.992
0.992
0.993
0.990
0.991
0.993
0.992
0.988
0.988
0.990
0.991
0.983
0.974
0.969
0.970
0.972
0.971
0.969
0.968
0.970
0.970
0.970
0.973
0.980
0.982
0.978
0.975
0.975
0.981
0.985
0.986
0.986
0.987
0.991
0.991
0.987
0.983
0.983
0.983
0.980
0.976
0.978
0.979
0.980
0.981
0.981
0.980
0.977
0.984
0.994
1.002
0.999
0.988
0.975
0.968
0.968
0.971
0.972
0.974
0.979
0.984
0.989
0.992
0.992
0.988
0.979
0.972
0.973
0.981
0.985
0.983
0.979
0.977
0.978
0.978
0.981
0.983
0.988
0.990
0.993
0.991
0.985
0.978
0.977
0.981
0.985
0.985
0.985
0.985
0.985
0.983
0.983
0.985
0.985
0.981
0.978
0.974
0.977
0.983
0.987
0.982
0.975
0.975
0.979
0.981
0.975
0.971
0.976
0.982
0.986
0.984
0.983
0.982
0.980
0.980
0.982
0.986
0.983
0.979
0.977
0.979
0.984
0.987
0.990
0.990
0.989
0.986
0.981
0.976
0.974
0.975
0.977
0.980
0.985
0.991
0.997
1.000
0.997
0.992
0.988
0.989
0.995
0.998
0.998
0.992
0.985
0.985
0.988
0.995
0.995
0.996
0.997
0.997
0.998
0.999
0.998
0.994
0.988
0.981
0.977
0.975
0.975
0.976
0.975
0.972
0.968
0.969
0.977
0.982
0.987
0.986
0.984
0.982
0.982
0.983
0.982
0.981
0.981
0.980
0.981
0.980
0.978
0.981
0.982
0.982
0.978
0.975
0.975
0.974
0.976
0.978
0.979
0.976
0.971
0.970
0.971
0.969
0.967
0.967
0.970
0.971
0.974
0.978
0.980
0.983
0.982
0.983
0.983
0.990
0.993
0.989
0.981
0.973
0.974
0.978
0.985
0.990
0.990
0.987
0.978
0.968
0.961
0.961
0.966
0.972
0.971
0.969
0.966
0.969
0.971
0.974
0.981
0.982
0.982
0.981
0.984
0.992
0.997
0.996
0.990
0.986
0.985
0.980
0.975
0.972
0.972
0.976
0.980
0.983
0.982
0.979
0.981
0.982
0.984
0.987
0.986
0.988
0.992
0.996
0.996
0.990
0.984
0.979
0.976
0.971
0.966
0.963
0.965
0.971
0.978
0.983
0.982
0.978
0.973
0.972
0.971
0.968
0.968
0.973
0.983
0.991
0.989
0.986
0.983
0.981
0.977
0.973
0.973
0.975
0.975
0.971
0.966
0.966
0.972
0.981
0.985
0.983
0.980
0.983
0.988
0.991
0.992
0.990
0.988
0.988
0.988
0.989
0.980
0.971
0.966
0.971
0.981
0.989
0.992
0.995
1.005
1.023
1.032
1.019
0.996
0.982
0.985
0.990
0.993
0.989
0.985
0.983
0.987
0.993
0.995
0.996
0.993
0.990
0.987
0.988
0.989
0.988
0.989
0.987
0.983
0.978
0.975
0.978
0.981
0.980
0.976
0.975
0.976
0.977
0.976
0.979
0.985
0.989
0.987
0.984
0.985
0.993
1.000
1.003
0.996
0.987
0.977
0.971
0.973
0.981
0.988
0.989
0.990
0.988
0.982
0.973
0.970
0.973
0.979
0.984
0.979
0.970
0.968
0.973
0.980
0.987
0.990
0.989
0.984
0.979
0.978
0.977
0.978
0.979
0.979
0.980
0.981
0.982
0.986
0.989
0.993
0.995
0.995
0.996
1.000
1.006
1.006
1.002
0.996
0.992
0.989
0.990
0.994
0.992
0.983
0.974
0.971
0.973
0.976
0.976
0.976
0.975
0.975
0.975
0.978
0.983
0.987
0.991
0.988
0.982
0.980
0.981
0.981
0.976
0.971
0.972
0.979
0.991
0.999
1.004
1.003
0.998
0.991
0.985
0.986
0.985
0.984
0.984
0.988
0.990
0.989
0.989
0.990
0.992
0.985
0.975
0.972
0.983
1.000
1.011
1.014
1.012
1.005
0.994
0.986
0.985
0.983
0.980
0.977
0.976
0.979
0.982
0.988
0.986
0.979
0.973
0.971
0.972
0.974
0.979
0.985
0.990
0.990
0.989
0.985
0.980
0.977
0.980
0.985
0.992
0.997
0.998
0.991
0.981
0.977
0.977
0.980
0.980
0.976
0.975
0.980
0.987
0.991
0.989
0.988
0.985
0.981
0.978
0.976
0.979
0.984
0.988
0.987
0.979
0.974
0.975
0.981
0.986
0.990
0.990
0.984
0.976
0.972
0.975
0.975
0.978
0.983
0.997
1.008
1.014
1.007
0.999
0.994
0.994
0.993
0.987
0.979
0.972
0.972
0.976
0.978
0.975
0.971
0.972
0.979
0.987
0.987
0.981
0.977
0.981
0.990
0.997
1.001
0.999
0.994
0.986
0.979
0.979
0.984
0.992
0.998
1.000
0.997
0.989
0.982
0.979
0.983
0.990
0.994
0.992
0.984
0.981
0.979
0.982
0.985
0.987
0.989
0.990
0.990
0.989
0.988
0.992
0.996
1.001
1.003
1.002
0.996
0.989
0.987
0.987
0.988
0.989
0.991
0.990
0.983
0.979
0.979
0.984
0.984
0.983
0.980
0.978
0.978
0.979
0.977
0.976
0.978
0.981
0.979
0.975
0.972
0.972
0.975
0.981
0.985
0.993
1.006
1.014
1.010
0.998
0.988
0.982
0.979
0.982
0.990
0.996
0.998
0.990
0.986
0.990
1.001
1.006
1.005
1.003
1.006
1.011
1.012
1.010
1.004
0.994
0.988
0.985
0.988
0.994
0.995
0.989
0.978
0.969
0.964
0.960
0.964
0.972
0.976
0.973
0.974
0.977
0.980
0.978
0.973
0.971
0.972
0.976
0.978
0.978
0.979
0.983
0.985
0.986
0.989
0.988
0.983
0.976
0.979
0.982
0.983
0.981
0.983
0.986
0.986
0.985
0.985
0.991
0.999
1.002
1.000
0.996
0.992
0.990
0.989
0.990
0.990
0.988
0.991
0.998
0.999
0.996
0.992
0.988
0.988
0.985
0.982
0.976
0.972
0.972
0.975
0.978
0.976
0.974
0.975
0.984
0.993
0.994
0.988
0.983
0.982
0.985
0.987
0.986
0.982
0.980
0.986
0.993
0.999
0.998
0.998
0.999
0.997
0.993
0.990
0.990
0.989
0.987
0.988
0.994
0.999
0.999
0.994
0.988
0.986
0.988
0.989
0.989
0.984
0.975
0.966
0.965
0.975
0.983
0.989
0.989
0.988
0.985
0.989
0.992
0.996
1.001
1.010
1.013
1.008
1.002
1.001
1.005
1.008
1.006
0.998
0.988
0.980
0.981
0.981
0.976
0.969
0.968
0.976
0.982
0.986
0.984
0.983
0.983
0.986
0.987
0.985
0.985
0.988
0.986
0.978
0.969
0.966
0.970
0.976
0.984
0.990
0.995
0.995
0.993
0.989
0.985
0.978
0.972
0.966
0.964
0.965
0.966
0.969
0.971
0.978
0.986
0.990
0.989
0.990
0.994
0.998
0.991
0.985
0.979
0.980
0.982
0.986
0.986
0.982
0.975
0.968
0.966
0.971
0.979
0.985
0.990
0.993
0.994
0.993
0.999
1.004
1.006
1.002
0.997
0.990
0.982
0.976
0.975
0.974
0.976
0.978
0.977
0.975
0.978
0.987
