Intensity BB9,,C:\Users\Brend\Desktop\LED Spectras v2\Blinds\Spectrometer Data (Blue [Blind 2]).sp,,,BB9,
1.713,,2018-07-24 11:12:10,,Integration Time,107 ms,
1.713,,Analyze Light,,Number of Scans to Average,25,
1.712,,,,Smoothing,1,
1.721
1.735
1.747
1.753
1.756
1.760
1.767
1.775
1.779
1.788
1.803
1.816
1.818
1.815
1.812
1.818
1.830
1.849
1.867
1.879
1.883
1.888
1.892
1.901
1.909
1.921
1.932
1.944
1.950
1.954
1.949
1.944
1.941
1.945
1.954
1.969
1.982
1.992
1.994
2.004
2.008
2.015
2.020
2.033
2.043
2.049
2.057
2.063
2.068
2.069
2.072
2.075
2.075
2.083
2.095
2.113
2.126
2.138
2.148
2.160
2.169
2.181
2.187
2.196
2.201
2.209
2.218
2.230
2.237
2.242
2.250
2.267
2.286
2.300
2.307
2.307
2.307
2.305
2.310
2.314
2.318
2.330
2.350
2.377
2.385
2.384
2.373
2.367
2.361
2.361
2.368
2.378
2.391
2.406
2.421
2.440
2.448
2.452
2.443
2.445
2.451
2.465
2.475
2.491
2.502
2.511
2.514
2.521
2.525
2.528
2.531
2.535
2.533
2.536
2.549
2.569
2.580
2.587
2.586
2.597
2.609
2.627
2.635
2.647
2.657
2.671
2.679
2.691
2.694
2.695
2.694
2.705
2.716
2.729
2.734
2.744
2.750
2.763
2.769
2.778
2.779
2.786
2.789
2.797
2.803
2.815
2.822
2.833
2.835
2.841
2.841
2.852
2.859
2.871
2.877
2.887
2.890
2.891
2.889
2.898
2.900
2.902
2.894
2.897
2.896
2.900
2.902
2.916
2.925
2.936
2.937
2.937
2.933
2.938
2.943
2.953
2.954
2.962
2.965
2.981
2.995
3.030
3.055
3.075
3.072
3.076
3.089
3.120
3.145
3.171
3.189
3.225
3.261
3.305
3.343
3.391
3.436
3.486
3.531
3.586
3.644
3.715
3.783
3.855
3.923
4.004
4.088
4.198
4.314
4.439
4.551
4.665
4.776
4.904
5.038
5.188
5.335
5.497
5.665
5.854
6.042
6.244
6.442
6.658
6.878
7.114
7.349
7.606
7.872
8.153
8.438
8.737
9.046
9.372
9.704
10.052
10.400
10.775
11.156
11.554
11.956
12.392
12.848
13.322
13.799
14.293
14.791
15.305
15.822
16.366
16.924
17.514
18.114
18.748
19.405
20.113
20.841
21.609
22.392
23.213
24.055
24.931
25.836
26.789
27.795
28.856
29.970
31.148
32.382
33.684
35.033
36.439
37.882
39.376
40.927
42.561
44.287
46.110
48.018
49.985
51.986
54.026
56.118
58.267
60.483
62.739
65.048
67.369
69.707
72.035
74.356
76.643
78.852
80.961
82.905
84.616
86.016
87.158
88.100
88.916
89.606
90.213
90.721
91.154
91.493
91.753
91.929
92.027
92.057
92.028
91.946
91.804
91.599
91.323
90.973
90.543
90.037
89.441
88.756
87.942
86.992
85.860
84.514
82.936
81.167
79.291
77.396
75.500
73.613
71.741
69.901
68.111
66.371
64.684
63.055
61.501
60.033
58.652
57.344
56.108
54.950
53.863
52.850
51.887
50.987
50.107
49.251
48.410
47.616
46.863
46.130
45.410
44.703
44.008
43.321
42.625
41.943
41.258
40.575
39.900
39.233
38.575
37.894
37.203
36.484
35.768
35.041
34.333
33.631
32.937
32.239
31.511
30.770
30.012
29.258
28.497
27.744
27.013
26.309
25.620
24.916
24.205
23.499
22.829
22.176
21.545
20.933
20.351
19.789
19.239
18.702
18.197
17.716
17.268
16.823
16.387
15.952
15.534
15.132
14.757
14.384
14.025
13.677
13.370
13.073
12.782
12.477
12.191
11.909
11.634
11.360
11.107
10.862
10.632
10.402
10.178
9.949
9.725
9.485
9.251
9.018
8.817
8.622
8.441
8.254
8.072
7.868
7.669
7.463
7.274
7.080
6.899
6.714
6.538
6.357
6.179
5.991
5.818
5.654
5.509
5.358
5.212
5.059
4.919
4.772
4.634
4.501
4.385
4.268
4.144
4.022
3.914
3.811
3.720
3.629
3.549
3.458
3.372
3.287
3.209
3.124
3.049
2.982
2.933
2.881
2.829
2.770
2.720
2.669
2.620
2.562
2.516
2.471
2.430
2.388
2.356
2.322
2.285
2.242
2.210
2.181
2.154
2.119
2.085
2.053
2.028
2.008
1.988
1.965
1.945
1.924
1.905
1.875
1.845
1.819
1.806
1.799
1.792
1.784
1.776
1.761
1.743
1.727
1.723
1.718
1.704
1.685
1.667
1.648
1.630
1.616
1.611
1.611
1.611
1.602
1.590
1.578
1.577
1.570
1.564
1.551
1.534
1.517
1.503
1.494
1.490
1.487
1.486
1.481
1.474
1.469
1.465
1.460
1.453
1.444
1.439
1.435
1.433
1.428
1.427
1.428
1.425
1.416
1.412
1.408
1.405
1.396
1.392
1.387
1.382
1.380
1.383
1.388
1.395
1.396
1.395
1.391
1.392
1.392
1.384
1.371
1.363
1.359
1.362
1.361
1.355
1.350
1.351
1.356
1.357
1.350
1.346
1.343
1.346
1.348
1.350
1.345
1.339
1.333
1.334
1.342
1.352
1.356
1.357
1.357
1.353
1.340
1.324
1.316
1.320
1.330
1.335
1.329
1.318
1.312
1.311
1.312
1.313
1.308
1.306
1.303
1.306
1.307
1.310
1.317
1.324
1.328
1.328
1.323
1.312
1.303
1.302
1.308
1.313
1.312
1.310
1.308
1.312
1.321
1.327
1.322
1.316
1.316
1.322
1.328
1.332
1.333
1.332
1.328
1.325
1.318
1.314
1.315
1.324
1.334
1.339
1.340
1.339
1.341
1.342
1.330
1.320
1.314
1.318
1.316
1.309
1.297
1.290
1.289
1.293
1.298
1.304
1.312
1.319
1.320
1.313
1.303
1.290
1.282
1.280
1.283
1.288
1.301
1.316
1.327
1.325
1.314
1.305
1.298
1.298
1.301
1.306
1.308
1.309
1.309
1.307
1.305
1.303
1.300
1.296
1.291
1.290
1.291
1.289
1.285
1.280
1.278
1.279
1.280
1.286
1.293
1.300
1.296
1.291
1.289
1.290
1.286
1.278
1.272
1.274
1.281
1.289
1.295
1.300
1.304
1.304
1.298
1.296
1.292
1.286
1.278
1.278
1.286
1.290
1.289
1.286
1.289
1.288
1.281
1.273
1.270
1.272
1.277
1.285
1.292
1.293
1.290
1.287
1.287
1.284
1.276
1.270
1.265
1.267
1.270
1.274
1.280
1.282
1.281
1.276
1.270
1.269
1.273
1.273
1.268
1.261
1.259
1.264
1.272
1.277
1.278
1.269
1.265
1.262
1.266
1.271
1.278
1.282
1.278
1.271
1.261
1.254
1.253
1.258
1.263
1.266
1.275
1.285
1.290
1.285
1.272
1.267
1.266
1.266
1.258
1.253
1.250
1.254
1.256
1.262
1.267
1.273
1.276
1.273
1.267
1.262
1.257
1.256
1.254
1.257
1.270
1.289
1.298
1.295
1.284
1.275
1.270
1.268
1.270
1.274
1.275
1.272
1.265
1.262
1.259
1.262
1.269
1.279
1.287
1.292
1.290
1.285
1.277
1.268
1.262
1.262
1.267
1.269
1.267
1.263
1.257
1.253
1.255
1.261
1.266
1.265
1.265
1.267
1.274
1.281
1.281
1.276
1.271
1.265
1.256
1.250
1.251
1.260
1.267
1.275
1.274
1.266
1.255
1.252
1.253
1.251
1.246
1.245
1.246
1.248
1.251
1.252
1.250
1.247
1.252
1.261
1.268
1.269
1.261
1.257
1.258
1.266
1.273
1.279
1.281
1.274
1.269
1.269
1.275
1.284
1.289
1.292
1.291
1.285
1.281
1.278
1.278
1.280
1.280
1.276
1.270
1.263
1.261
1.262
1.262
1.255
1.249
1.247
1.255
1.261
1.265
1.267
1.268
1.269
1.267
1.264
1.260
1.258
1.266
1.273
1.270
1.261
1.256
1.259
1.257
1.254
1.253
1.258
1.263
1.268
1.277
1.284
1.277
1.264
1.259
1.269
1.275
1.275
1.275
1.277
1.275
1.268
1.261
1.263
1.270
1.281
1.283
1.276
1.270
1.264
1.262
1.263
1.264
1.263
1.256
1.251
1.250
1.249
1.249
1.252
1.257
1.260
1.261
1.260
1.261
1.259
1.254
1.251
1.253
1.261
1.265
1.261
1.251
1.242
1.234
1.227
1.221
1.224
1.236
1.248
1.254
1.255
1.250
1.242
1.233
1.230
1.234
1.242
1.252
1.260
1.260
1.255
1.249
1.247
1.246
1.248
1.249
1.251
1.253
1.257
1.257
1.251
1.242
1.237
1.240
1.247
1.257
1.262
1.258
1.251
1.242
1.239
1.238
1.243
1.249
1.252
1.251
1.245
1.243
1.241
1.235
1.231
1.229
1.235
1.240
1.246
1.251
1.256
1.258
1.260
1.256
1.250
1.244
1.245
1.252
1.264
1.273
1.273
1.261
1.249
1.237
1.239
1.247
1.254
1.254
1.248
1.241
1.233
1.227
1.226
1.228
1.235
1.240
1.244
1.243
1.247
1.253
1.257
1.261
1.269
1.273
1.265
1.251
1.244
1.246
1.250
1.255
1.259
1.261
1.263
1.264
1.264
1.262
1.259
1.255
1.250
1.248
1.245
1.239
1.229
1.225
1.225
1.228
1.229
1.232
1.234
1.238
1.243
1.245
1.241
1.238
1.240
1.243
1.243
1.241
1.237
1.233
1.232
1.235
1.236
1.234
1.236
1.242
1.247
1.247
1.243
1.245
1.245
1.237
1.226
1.220
1.226
1.232
1.236
1.240
1.242
1.242
1.242
1.241
1.241
1.240
1.244
1.250
1.257
1.264
1.270
1.284
1.300
1.297
1.284
1.271
1.274
1.283
1.305
1.323
1.310
1.277
1.250
1.247
1.251
1.254
1.257
1.254
1.248
1.243
1.244
1.245
1.242
1.233
1.226
1.224
1.222
1.224
1.232
1.244
1.249
1.245
1.242
1.243
1.244
1.245
1.249
1.255
1.255
1.248
1.240
1.241
1.252
1.260
1.261
1.257
1.255
1.256
1.255
1.250
1.242
1.233
1.227
1.225
1.228
1.237
1.251
1.257
1.255
1.248
1.245
1.249
1.254
1.254
1.246
1.234
1.228
1.230
1.236
1.242
1.252
1.260
1.259
1.253
1.246
1.242
1.235
1.232
1.234
1.244
1.251
1.247
1.237
1.226
1.224
1.230
1.243
1.258
1.262
1.257
1.252
1.247
1.248
1.250
1.254
1.250
1.242
1.237
1.240
1.243
1.240
1.237
1.234
1.234
1.233
1.235
1.241
1.245
1.248
1.252
1.257
1.257
1.250
1.243
1.242
1.242
1.238
1.232
1.232
1.235
1.237
1.236
1.242
1.249
1.249
1.244
1.242
1.243
1.243
1.245
1.247
1.244
1.240
1.240
1.244
1.247
1.246
1.244
1.239
1.226
1.216
1.205
1.200
1.192
1.181
1.173
1.173
1.178
1.186
1.186
1.181
1.173
1.167
1.165
1.164
1.165
1.166
1.168
1.172
1.176
1.182
1.186
1.188
1.185
1.181
1.186
1.194
1.205
1.208
1.207
1.201
1.194
1.186
1.178
1.178
1.182
1.181
1.175
1.172
1.175
1.180
1.177
1.169
1.164
1.166
1.173
1.179
1.185
1.187
1.181
1.172
1.167
1.171
1.179
1.185
1.192
1.196
1.196
1.193
1.185
1.177
1.171
1.173
1.179
1.180
1.178
1.180
1.184
1.182
1.174
1.167
1.168
1.172
1.173
1.170
1.166
1.166
1.168
1.174
1.176
1.183
1.189
1.194
1.193
1.192
1.191
1.187
1.177
1.172
1.171
1.170
1.168
1.166
1.167
1.171
1.178
1.179
1.173
1.167
1.166
1.168
1.172
1.177
1.180
1.179
1.176
1.179
1.184
1.180
1.171
1.166
1.168
1.172
1.170
1.166
1.163
1.166
1.170
1.169
1.164
1.157
1.153
1.153
1.156
1.164
1.171
1.171
1.167
1.162
1.160
1.160
1.160
1.160
1.161
1.165
1.171
1.172
1.170
1.172
1.177
1.184
1.182
1.177
1.172
1.165
1.159
1.155
1.155
1.158
1.163
1.173
1.188
1.197
1.196
1.183
1.171
1.166
1.167
1.169
1.172
1.175
1.184
1.191
1.195
1.195
1.192
1.183
1.170
1.161
1.165
1.178
1.185
1.182
1.173
1.168
1.167
1.166
1.169
1.174
1.181
1.185
1.185
1.177
1.168
1.161
1.167
1.176
1.179
1.176
1.174
1.175
1.178
1.177
1.178
1.178
1.178
1.177
1.173
1.171
1.172
1.176
1.178
1.176
1.175
1.176
1.178
1.174
1.167
1.163
1.167
1.177
1.182
1.183
1.182
1.182
1.181
1.182
1.187
1.190
1.184
1.172
1.164
1.163
1.168
1.172
1.177
1.179
1.182
1.179
1.174
1.169
1.165
1.162
1.162
1.167
1.176
1.183
1.189
1.194
1.191
1.185
1.180
1.186
1.195
1.198
1.195
1.188
1.178
1.176
1.181
1.192
1.199
1.202
1.204
1.205
1.207
1.209
1.206
1.197
1.185
1.174
1.167
1.163
1.161
1.162
1.163
1.164
1.162
1.160
1.164
1.170
1.177
1.185
1.190
1.196
1.198
1.198
1.194
1.189
1.182
1.177
1.174
1.174
1.172
1.173
1.174
1.170
1.162
1.156
1.157
1.158
1.163
1.168
1.169
1.163
1.156
1.155
1.158
1.159
1.158
1.161
1.168
1.173
1.177
1.182
1.186
1.189
1.185
1.183
1.186
1.195
1.199
1.189
1.172
1.158
1.155
1.159
1.170
1.179
1.183
1.181
1.176
1.172
1.166
1.163
1.166
1.171
1.170
1.168
1.167
1.169
1.170
1.172
1.180
1.184
1.182
1.181
1.182
1.189
1.193
1.192
1.185
1.184
1.187
1.186
1.173
1.161
1.158
1.165
1.175
1.180
1.179
1.179
1.180
1.181
1.180
1.176
1.172
1.170
1.172
1.178
1.179
1.176
1.166
1.158
1.157
1.159
1.158
1.159
1.167
1.183
1.193
1.198
1.193
1.183
1.169
1.161
1.161
1.162
1.161
1.165
1.174
1.181
1.176
1.168
1.163
1.165
1.165
1.166
1.167
1.169
1.165
1.159
1.153
1.154
1.160
1.168
1.173
1.173
1.171
1.174
1.184
1.193
1.195
1.196
1.193
1.190
1.182
1.175
1.167
1.165
1.166
1.172
1.178
1.186
1.188
1.193
1.203
1.224
1.236
1.222
1.193
1.174
1.178
1.188
1.190
1.187
1.183
1.183
1.185
1.185
1.182
1.180
1.182
1.179
1.178
1.179
1.186
1.189
1.190
1.186
1.173
1.157
1.149
1.158
1.169
1.168
1.161
1.157
1.157
1.156
1.159
1.168
1.179
1.182
1.173
1.164
1.162
1.172
1.185
1.192
1.191
1.184
1.175
1.166
1.166
1.172
1.176
1.177
1.177
1.181
1.183
1.176
1.169
1.163
1.163
1.163
1.158
1.159
1.165
1.173
1.176
1.180
1.182
1.182
1.177
1.174
1.175
1.176
1.177
1.180
1.180
1.181
1.179
1.181
1.183
1.186
1.186
1.184
1.183
1.183
1.182
1.186
1.191
1.197
1.197
1.192
1.184
1.177
1.178
1.180
1.175
1.171
1.167
1.167
1.165
1.163
1.163
1.168
1.174
1.179
1.182
1.185
1.186
1.187
1.180
1.172
1.168
1.169
1.168
1.161
1.157
1.161
1.175
1.188
1.197
1.201
1.207
1.204
1.189
1.176
1.172
1.174
1.174
1.176
1.185
1.196
1.202
1.203
1.198
1.188
1.176
1.165
1.168
1.182
1.201
1.213
1.218
1.214
1.208
1.198
1.190
1.184
1.175
1.166
1.163
1.167
1.171
1.172
1.178
1.183
1.182
1.174
1.164
1.159
1.161
1.172
1.183
1.187
1.187
1.186
1.180
1.174
1.174
1.183
1.188
1.194
1.195
1.188
1.174
1.160
1.159
1.165
1.174
1.176
1.172
1.167
1.168
1.174
1.182
1.186
1.182
1.176
1.167
1.160
1.158
1.161
1.173
1.181
1.177
1.167
1.161
1.168
1.178
1.184
1.188
1.189
1.183
1.173
1.168
1.171
1.172
1.171
1.174
1.184
1.195
1.197
1.191
1.183
1.181
1.186
1.189
1.186
1.172
1.159
1.155
1.160
1.167
1.171
1.171
1.169
1.170
1.173
1.172
1.163
1.158
1.165
1.178
1.192
1.198
1.196
1.188
1.180
1.172
1.168
1.170
1.178
1.188
1.191
1.188
1.182
1.175
1.171
1.172
1.178
1.185
1.185
1.180
1.173
1.164
1.159
1.162
1.169
1.178
1.183
1.181
1.177
1.173
1.178
1.187
1.197
1.201
1.200
1.191
1.179
1.172
1.175
1.186
1.195
1.201
1.198
1.185
1.180
1.182
1.190
1.189
1.185
1.179
1.171
1.164
1.159
1.158
1.162
1.166
1.168
1.167
1.163
1.160
1.157
1.160
1.167
1.175
1.186
1.200
1.208
1.203
1.188
1.172
1.162
1.157
1.160
1.168
1.177
1.177
1.168
1.160
1.164
1.177
1.184
1.187
1.191
1.198
1.202
1.206
1.205
1.198
1.186
1.180
1.184
1.191
1.202
1.205
1.196
1.181
1.170
1.164
1.160
1.160
1.165
1.167
1.165
1.167
1.172
1.180
1.183
1.176
1.166
1.159
1.161
1.162
1.169
1.177
1.185
1.185
1.185
1.186
1.183
1.175
1.172
1.175
1.182
1.185
1.186
1.187
1.191
1.193
1.190
1.188
1.193
1.206
1.213
1.209
1.203
1.198
1.198
1.193
1.190
1.184
1.179
1.176
1.176
1.176
1.173
1.170
1.171
1.175
1.179
1.176
1.171
1.168
1.169
1.174
1.176
1.177
1.173
1.174
1.179
1.186
1.189
1.184
1.180
1.178
1.186
1.195
1.200
1.196
1.189
1.195
1.205
1.211
1.205
1.198
1.196
1.192
1.183
1.173
1.170
1.171
1.172
1.175
1.181
1.186
1.189
1.184
1.177
1.177
1.184
1.191
1.190
1.183
1.172
1.160
1.159
1.166
1.173
1.179
1.182
1.184
1.185
1.184
1.182
1.178
1.183
1.194
1.198
1.188
1.175
1.174
1.185
1.194
1.193
1.184
1.172
1.162
1.158
1.158
1.158
1.156
1.157
1.165
1.172
1.179
1.184
1.189
1.191
1.188
1.182
1.179
1.181
1.186
1.187
1.182
1.176
1.176
1.175
1.176
1.179
1.188
1.194
1.196
1.192
1.186
1.179
1.172
1.166
1.162
1.161
1.162
1.162
1.161
1.160
1.165
1.171
1.172
1.168
1.167
1.174
1.181
1.180
1.171
1.165
1.164
1.169
1.172
1.174
1.172
1.168
1.162
1.159
1.163
1.170
1.173
1.176
1.179
1.182
1.185
1.190
1.199
1.203
1.204
1.200
1.196
1.190
1.185
1.178
1.172
1.170
1.169
1.165
1.162
1.165
1.176
